Data from Av-i2_Reflection_14-43-43-523.txt Node
Date: Tue Aug 16 14:43:43 CEST 2022
User: IDIV
Spectrometer: FLMS14958
Trigger mode: 0
Integration Time (sec): 1.000000E-1
Scans to average: 10
Electric dark correction enabled: true
Nonlinearity correction enabled: true
Boxcar width: 2
XAxis mode: Wavelengths
Number of Pixels in Spectrum: 2048
>>>>>Begin Spectral Data<<<<<
179.491	-505.71
179.869	-1269.4
180.247	210.8
180.625	18.63
181.003	50.92
181.381	34.29
181.759	-24.33
182.136	-1656.64
182.514	19.7
182.892	199.03
183.27	178.89
183.647	330.18
184.025	364.15
184.403	-639.13
184.78	145.72
185.158	16.24
185.536	-120.34
185.913	593.59
186.291	-730.22
186.668	-209.63
187.046	-40.22
187.423	-5.42
187.801	16.6
188.178	30.33
188.556	24.12
188.933	11.1
189.31	3.95
189.688	0.82
190.065	-2.75
190.442	2.6
190.82	16.38
191.197	24
191.574	21.1
191.951	22.86
192.329	14.19
192.706	3.96
193.083	1.22
193.46	16.09
193.837	21.24
194.214	14.36
194.591	12.57
194.968	1.94
195.345	-7.54
195.722	2.3
196.099	5.29
196.476	8.1
196.853	18.47
197.23	17.32
197.607	5.21
197.984	8
198.36	8.96
198.737	13.75
199.114	19.64
199.491	20.88
199.867	22.38
200.244	18.5
200.621	14.12
200.997	2.27
201.374	-4.56
201.75	-12
202.127	-3.14
202.504	-4.56
202.88	-4.21
203.257	-0.83
203.633	9.06
204.01	9.14
204.386	6.44
204.762	15.33
205.139	23.7
205.515	23.37
205.891	19.92
206.268	17.88
206.644	17.56
207.02	14.99
207.396	9.09
207.773	12.27
208.149	17.92
208.525	14.21
208.901	12.66
209.277	18.15
209.653	15.45
210.029	4.78
210.405	-3.13
210.781	-0.64
211.157	-8.26
211.533	-8.23
211.909	6.7
212.285	17.13
212.661	21.44
213.037	14.88
213.413	3.4
213.789	-12.53
214.164	-17.28
214.54	-34.91
214.916	-17.16
215.292	-7.4
215.667	-2.11
216.043	6.09
216.419	2.35
216.794	-0.13
217.17	3.76
217.545	10.26
217.921	5.8
218.296	9.06
218.672	17.31
219.047	8.39
219.423	8.04
219.798	6.08
220.174	10.71
220.549	3.98
220.924	7.49
221.3	4.81
221.675	6.64
222.05	6.53
222.425	10.25
222.801	14.9
223.176	11.59
223.551	7.42
223.926	1.01
224.301	-7.98
224.676	-11.53
225.051	-8.82
225.426	-5.61
225.801	-6.21
226.176	-3.06
226.551	-4.16
226.926	-4.23
227.301	-5.93
227.676	-1.29
228.051	-3.32
228.426	-0.31
228.801	0.57
229.175	1.36
229.55	1.55
229.925	1.98
230.3	0.54
230.674	-0.6
231.049	-0.13
231.424	-1.6
231.798	-1.76
232.173	-1.26
232.547	-1
232.922	-2.63
233.296	-2.43
233.671	-2.31
234.045	-2.03
234.42	-1.51
234.794	0.37
235.168	1.24
235.543	2.18
235.917	2.4
236.291	3.07
236.666	2.02
237.04	1.75
237.414	1.92
237.788	1.75
238.162	0.56
238.537	-1.05
238.911	-1.42
239.285	-2.54
239.659	-2.09
240.033	-1.63
240.407	0.24
240.781	0.15
241.155	-0.26
241.529	-0.02
241.903	-0.06
242.277	-0.26
242.65	-0.48
243.024	0.29
243.398	0.23
243.772	0.5
244.146	0.57
244.519	0.91
244.893	0.37
245.267	0.61
245.64	0.22
246.014	0.57
246.387	0.34
246.761	0.38
247.135	0.29
247.508	0.21
247.882	0.01
248.255	0
248.628	-0.05
249.002	-0.11
249.375	0.08
249.749	-0.01
250.122	0.17
250.495	0.04
250.868	-0.07
251.242	-0.15
251.615	0.37
251.988	0.36
252.361	0.65
252.734	0.45
253.107	0.32
253.481	0.28
253.854	0.51
254.227	0.25
254.6	0.49
254.973	0.12
255.346	-0.51
255.718	-0.9
256.091	-0.67
256.464	-0.39
256.837	0.09
257.21	0.47
257.583	0.41
257.955	0.43
258.328	0.26
258.701	0.38
259.074	0.48
259.446	0.38
259.819	0.32
260.191	0.27
260.564	0.12
260.936	0.01
261.309	0.01
261.681	-0.07
262.054	-0.08
262.426	0.1
262.799	0.23
263.171	-0
263.543	0.24
263.916	0.21
264.288	-0.09
264.66	-0.07
265.033	0.5
265.405	0.26
265.777	0.35
266.149	0.72
266.521	0.39
266.893	0.32
267.265	0.43
267.637	0.34
268.009	0.41
268.381	0.36
268.753	0.11
269.125	0.07
269.497	0.27
269.869	0.13
270.241	0.29
270.613	0.33
270.985	0.43
271.356	0.26
271.728	0.21
272.1	0.45
272.471	0.65
272.843	0.55
273.215	0.73
273.586	0.77
273.958	0.54
274.329	0.38
274.701	0.33
275.072	0.06
275.444	0.12
275.815	0.27
276.187	0.41
276.558	0.45
276.929	0.52
277.301	0.64
277.672	0.72
278.043	0.72
278.415	0.69
278.786	0.87
279.157	0.54
279.528	0.41
279.899	0.11
280.27	0.3
280.641	0.26
281.012	0.41
281.383	0.49
281.754	0.51
282.125	0.52
282.496	0.35
282.867	0.2
283.238	0.19
283.609	0.41
283.98	0.41
284.35	0.42
284.721	0.51
285.092	0.44
285.462	0.49
285.833	0.55
286.204	0.6
286.574	0.54
286.945	0.68
287.315	0.59
287.686	0.51
288.056	0.6
288.427	0.83
288.797	0.67
289.168	0.71
289.538	0.77
289.908	0.55
290.279	0.47
290.649	0.49
291.019	0.39
291.39	0.19
291.76	0.37
292.13	0.36
292.5	0.41
292.87	0.36
293.24	0.72
293.61	0.77
293.98	0.73
294.35	0.55
294.72	0.79
295.09	0.46
295.46	0.06
295.83	0.03
296.2	0.28
296.57	0.16
296.939	0.31
297.309	0.6
297.679	0.66
298.049	0.63
298.418	0.62
298.788	0.58
299.158	0.4
299.527	0.28
299.897	0.09
300.266	0.13
300.636	0.04
301.005	0.11
301.375	0.16
301.744	0.15
302.113	0.32
302.483	0.34
302.852	0.48
303.221	0.52
303.591	0.61
303.96	0.53
304.329	0.8
304.698	0.44
305.067	0.37
305.436	0.22
305.806	0.12
306.175	-0.32
306.544	-0.15
306.913	-0.14
307.282	-0.03
307.65	0.04
308.019	0.39
308.388	0.41
308.757	0.13
309.126	0.21
309.495	0.38
309.863	0.45
310.232	0.51
310.601	0.92
310.969	0.82
311.338	0.67
311.707	0.45
312.075	0.32
312.444	-0.06
312.812	-0.2
313.181	-0.29
313.549	-0.27
313.918	-0.26
314.286	0.04
314.654	0.18
315.023	0.22
315.391	0.21
315.759	0.36
316.127	0.37
316.496	0.58
316.864	0.63
317.232	0.57
317.6	0.62
317.968	0.69
318.336	0.5
318.704	0.59
319.072	0.84
319.44	0.92
319.808	0.64
320.176	0.49
320.544	0.3
320.912	0.23
321.28	0
321.647	0.28
322.015	0.56
322.383	0.71
322.75	0.44
323.118	0.48
323.486	0.42
323.853	0.04
324.221	-0.12
324.588	-0.05
324.956	-0.15
325.323	-0.22
325.691	0.11
326.058	0.27
326.426	0.11
326.793	0.08
327.16	0.26
327.528	0.31
327.895	0.26
328.262	0.35
328.629	0.36
328.996	0.18
329.363	0.16
329.731	0.16
330.098	0.4
330.465	0.66
330.832	0.65
331.199	0.64
331.566	0.6
331.932	0.58
332.299	0.53
332.666	0.62
333.033	0.78
333.4	0.59
333.766	0.41
334.133	0.23
334.5	0.2
334.867	0.15
335.233	0.26
335.6	0.51
335.966	0.51
336.333	0.45
336.699	0.31
337.066	0.32
337.432	0.28
337.799	0.35
338.165	0.47
338.531	0.55
338.898	0.61
339.264	0.42
339.63	0.47
339.996	0.49
340.363	0.8
340.729	0.68
341.095	0.75
341.461	0.55
341.827	0.52
342.193	0.21
342.559	0.12
342.925	0.07
343.291	0.17
343.657	0.15
344.023	0.04
344.388	0.38
344.754	0.48
345.12	0.68
345.486	0.73
345.851	0.91
346.217	0.67
346.583	0.56
346.948	0.34
347.314	0.18
347.679	0.09
348.045	0.34
348.41	0.5
348.776	0.54
349.141	0.8
349.507	0.78
349.872	0.59
350.237	0.45
350.603	0.64
350.968	0.52
351.333	0.41
351.698	0.27
352.063	0.49
352.428	0.27
352.794	0.26
353.159	0.09
353.524	0.23
353.889	-0.11
354.254	-0.14
354.618	-0.06
354.983	0.3
355.348	0.54
355.713	0.77
356.078	0.78
356.443	0.66
356.807	0.51
357.172	0.2
357.537	0.06
357.901	0.27
358.266	0.19
358.63	0.27
358.995	0.33
359.359	0.39
359.724	0.22
360.088	0.29
360.453	0.19
360.817	0.26
361.181	0.26
361.546	0.25
361.91	0.24
362.274	0.26
362.638	0.23
363.003	0.2
363.367	0.18
363.731	0.23
364.095	0.29
364.459	0.43
364.823	0.47
365.187	0.65
365.551	0.68
365.915	0.58
366.279	0.45
366.642	0.35
367.006	0.21
367.37	0.09
367.734	0.09
368.097	0.06
368.461	0.32
368.825	0.26
369.188	0.37
369.552	0.38
369.915	0.39
370.279	0.24
370.642	0.33
371.006	0.27
371.369	0.2
371.732	0.17
372.096	0.08
372.459	0.03
372.822	-0.04
373.186	0.16
373.549	0.5
373.912	0.47
374.275	0.5
374.638	0.49
375.001	0.5
375.364	0.22
375.727	0.32
376.09	0.36
376.453	0.44
376.816	0.23
377.179	0.1
377.542	0.22
377.904	0.22
378.267	0.25
378.63	0.44
378.993	0.54
379.355	0.32
379.718	0.31
380.08	0.27
380.443	0.2
380.806	0.25
381.168	0.3
381.53	0.41
381.893	0.43
382.255	0.33
382.618	0.35
382.98	0.37
383.342	0.24
383.704	0.3
384.067	0.3
384.429	0.26
384.791	0.3
385.153	0.4
385.515	0.33
385.877	0.49
386.239	0.55
386.601	0.54
386.963	0.53
387.325	0.53
387.687	0.43
388.049	0.42
388.41	0.35
388.772	0.35
389.134	0.19
389.496	0.24
389.857	0.23
390.219	0.4
390.58	0.33
390.942	0.61
391.303	0.54
391.665	0.5
392.026	0.5
392.388	0.58
392.749	0.48
393.111	0.47
393.472	0.41
393.833	0.26
394.194	0.16
394.556	0.18
394.917	0.23
395.278	0.31
395.639	0.38
396	0.35
396.361	0.32
396.722	0.4
397.083	0.34
397.444	0.36
397.805	0.38
398.166	0.35
398.526	0.23
398.887	0.16
399.248	0.14
399.609	0.23
399.969	0.32
400.33	0.29
400.691	0.4
401.051	0.36
401.412	0.21
401.772	0.12
402.133	0.13
402.493	0.13
402.853	0.14
403.214	0.22
403.574	0.25
403.934	0.3
404.295	0.36
404.655	0.34
405.015	0.46
405.375	0.52
405.735	0.44
406.095	0.41
406.455	0.4
406.815	0.31
407.175	0.23
407.535	0.32
407.895	0.27
408.255	0.33
408.615	0.41
408.975	0.45
409.334	0.49
409.694	0.5
410.054	0.51
410.413	0.46
410.773	0.46
411.133	0.46
411.492	0.53
411.852	0.65
412.211	0.72
412.571	0.8
412.93	0.67
413.289	0.64
413.649	0.58
414.008	0.46
414.367	0.34
414.726	0.48
415.086	0.37
415.445	0.34
415.804	0.42
416.163	0.44
416.522	0.31
416.881	0.38
417.24	0.39
417.599	0.28
417.958	0.25
418.316	0.31
418.675	0.35
419.034	0.34
419.393	0.45
419.751	0.47
420.11	0.49
420.469	0.5
420.827	0.48
421.186	0.43
421.544	0.42
421.903	0.42
422.261	0.38
422.62	0.34
422.978	0.35
423.336	0.31
423.695	0.29
424.053	0.32
424.411	0.35
424.769	0.32
425.128	0.38
425.486	0.41
425.844	0.4
426.202	0.39
426.56	0.47
426.918	0.43
427.276	0.42
427.634	0.4
427.991	0.36
428.349	0.32
428.707	0.41
429.065	0.41
429.423	0.45
429.78	0.53
430.138	0.54
430.495	0.46
430.853	0.48
431.211	0.48
431.568	0.47
431.925	0.44
432.283	0.48
432.64	0.43
432.998	0.43
433.355	0.47
433.712	0.42
434.069	0.4
434.427	0.41
434.784	0.41
435.141	0.35
435.498	0.38
435.855	0.43
436.212	0.42
436.569	0.43
436.926	0.48
437.283	0.48
437.64	0.38
437.996	0.33
438.353	0.37
438.71	0.32
439.067	0.3
439.423	0.3
439.78	0.39
440.137	0.37
440.493	0.37
440.85	0.41
441.206	0.42
441.563	0.33
441.919	0.34
442.275	0.32
442.632	0.26
442.988	0.34
443.344	0.39
443.7	0.29
444.057	0.28
444.413	0.32
444.769	0.26
445.125	0.28
445.481	0.36
445.837	0.38
446.193	0.33
446.549	0.35
446.905	0.31
447.26	0.29
447.616	0.29
447.972	0.35
448.328	0.37
448.683	0.41
449.039	0.42
449.395	0.39
449.75	0.4
450.106	0.36
450.461	0.33
450.817	0.26
451.172	0.36
451.527	0.33
451.883	0.32
452.238	0.33
452.593	0.35
452.949	0.28
453.304	0.38
453.659	0.4
454.014	0.44
454.369	0.47
454.724	0.43
455.079	0.28
455.434	0.28
455.789	0.26
456.144	0.25
456.499	0.23
456.853	0.21
457.208	0.17
457.563	0.15
457.918	0.1
458.272	0.17
458.627	0.19
458.981	0.26
459.336	0.31
459.69	0.31
460.045	0.28
460.399	0.31
460.754	0.28
461.108	0.25
461.462	0.32
461.817	0.34
462.171	0.37
462.525	0.34
462.879	0.37
463.233	0.35
463.587	0.36
463.941	0.32
464.295	0.37
464.649	0.33
465.003	0.3
465.357	0.33
465.711	0.32
466.065	0.3
466.418	0.29
466.772	0.35
467.126	0.35
467.479	0.37
467.833	0.4
468.186	0.46
468.54	0.4
468.893	0.37
469.247	0.38
469.6	0.36
469.954	0.35
470.307	0.39
470.66	0.38
471.013	0.42
471.367	0.39
471.72	0.35
472.073	0.37
472.426	0.42
472.779	0.41
473.132	0.44
473.485	0.47
473.838	0.4
474.191	0.35
474.544	0.33
474.896	0.29
475.249	0.28
475.602	0.36
475.955	0.38
476.307	0.39
476.66	0.42
477.012	0.43
477.365	0.4
477.717	0.38
478.07	0.43
478.422	0.44
478.775	0.42
479.127	0.38
479.479	0.4
479.831	0.36
480.184	0.31
480.536	0.35
480.888	0.41
481.24	0.42
481.592	0.41
481.944	0.45
482.296	0.41
482.648	0.37
483	0.38
483.352	0.33
483.703	0.31
484.055	0.34
484.407	0.35
484.759	0.34
485.11	0.37
485.462	0.36
485.813	0.35
486.165	0.32
486.516	0.31
486.868	0.32
487.219	0.33
487.571	0.3
487.922	0.31
488.273	0.3
488.624	0.28
488.976	0.28
489.327	0.29
489.678	0.28
490.029	0.29
490.38	0.27
490.731	0.28
491.082	0.31
491.433	0.32
491.784	0.33
492.135	0.34
492.485	0.38
492.836	0.37
493.187	0.37
493.537	0.34
493.888	0.34
494.239	0.26
494.589	0.22
494.94	0.23
495.29	0.3
495.641	0.33
495.991	0.38
496.341	0.39
496.692	0.39
497.042	0.32
497.392	0.29
497.742	0.28
498.092	0.3
498.442	0.28
498.793	0.29
499.143	0.33
499.493	0.28
499.842	0.29
500.192	0.34
500.542	0.34
500.892	0.31
501.242	0.34
501.591	0.29
501.941	0.27
502.291	0.29
502.64	0.32
502.99	0.35
503.339	0.39
503.689	0.39
504.038	0.37
504.388	0.41
504.737	0.46
505.086	0.44
505.436	0.45
505.785	0.48
506.134	0.44
506.483	0.4
506.832	0.43
507.181	0.44
507.53	0.43
507.879	0.41
508.228	0.35
508.577	0.3
508.926	0.26
509.275	0.3
509.624	0.32
509.972	0.33
510.321	0.39
510.67	0.41
511.018	0.35
511.367	0.35
511.715	0.34
512.064	0.31
512.412	0.34
512.761	0.35
513.109	0.36
513.457	0.37
513.806	0.39
514.154	0.4
514.502	0.4
514.85	0.4
515.198	0.36
515.546	0.34
515.894	0.34
516.242	0.34
516.59	0.32
516.938	0.39
517.286	0.38
517.634	0.38
517.981	0.37
518.329	0.37
518.677	0.33
519.024	0.33
519.372	0.3
519.72	0.34
520.067	0.33
520.415	0.31
520.762	0.35
521.109	0.37
521.457	0.34
521.804	0.3
522.151	0.36
522.498	0.29
522.846	0.29
523.193	0.3
523.54	0.33
523.887	0.38
524.234	0.43
524.581	0.45
524.928	0.43
525.275	0.43
525.621	0.39
525.968	0.35
526.315	0.35
526.662	0.35
527.008	0.34
527.355	0.35
527.701	0.35
528.048	0.34
528.394	0.34
528.741	0.35
529.087	0.36
529.434	0.35
529.78	0.34
530.126	0.36
530.472	0.37
530.819	0.32
531.165	0.35
531.511	0.34
531.857	0.34
532.203	0.31
532.549	0.34
532.895	0.32
533.241	0.38
533.586	0.36
533.932	0.37
534.278	0.42
534.624	0.45
534.969	0.43
535.315	0.45
535.661	0.42
536.006	0.34
536.352	0.39
536.697	0.38
537.042	0.4
537.388	0.43
537.733	0.41
538.078	0.37
538.424	0.36
538.769	0.37
539.114	0.36
539.459	0.41
539.804	0.45
540.149	0.46
540.494	0.46
540.839	0.45
541.184	0.44
541.529	0.41
541.873	0.39
542.218	0.37
542.563	0.36
542.908	0.36
543.252	0.35
543.597	0.36
543.941	0.36
544.286	0.39
544.63	0.42
544.975	0.43
545.319	0.45
545.663	0.46
546.007	0.47
546.352	0.45
546.696	0.47
547.04	0.47
547.384	0.47
547.728	0.46
548.072	0.46
548.416	0.47
548.76	0.44
549.104	0.36
549.448	0.38
549.791	0.37
550.135	0.31
550.479	0.31
550.823	0.37
551.166	0.36
551.51	0.41
551.853	0.47
552.197	0.44
552.54	0.48
552.883	0.44
553.227	0.46
553.57	0.44
553.913	0.51
554.257	0.51
554.6	0.55
554.943	0.52
555.286	0.56
555.629	0.47
555.972	0.45
556.315	0.46
556.658	0.47
557.001	0.43
557.343	0.43
557.686	0.43
558.029	0.36
558.371	0.3
558.714	0.32
559.057	0.39
559.399	0.4
559.742	0.48
560.084	0.54
560.427	0.55
560.769	0.54
561.111	0.5
561.453	0.48
561.796	0.52
562.138	0.53
562.48	0.52
562.822	0.57
563.164	0.56
563.506	0.53
563.848	0.45
564.19	0.48
564.532	0.43
564.874	0.47
565.215	0.47
565.557	0.45
565.899	0.45
566.24	0.53
566.582	0.48
566.924	0.5
567.265	0.54
567.606	0.54
567.948	0.5
568.289	0.52
568.631	0.51
568.972	0.52
569.313	0.44
569.654	0.44
569.995	0.42
570.336	0.45
570.677	0.51
571.018	0.56
571.359	0.58
571.7	0.6
572.041	0.59
572.382	0.53
572.723	0.58
573.064	0.57
573.404	0.6
573.745	0.59
574.085	0.65
574.426	0.65
574.766	0.62
575.107	0.64
575.447	0.67
575.788	0.64
576.128	0.58
576.468	0.65
576.808	0.6
577.149	0.56
577.489	0.56
577.829	0.63
578.169	0.6
578.509	0.61
578.849	0.68
579.189	0.73
579.529	0.77
579.868	0.8
580.208	0.82
580.548	0.83
580.887	0.9
581.227	0.89
581.567	0.9
581.906	0.92
582.246	0.87
582.585	0.78
582.925	0.78
583.264	0.73
583.603	0.78
583.942	0.69
584.282	0.81
584.621	0.85
584.96	0.96
585.299	1.02
585.638	1.15
585.977	1.16
586.316	1.26
586.655	1.31
586.994	1.28
587.332	1.32
587.671	1.35
588.01	1.31
588.348	1.33
588.687	1.32
589.026	1.33
589.364	1.31
589.703	1.41
590.041	1.35
590.379	1.33
590.718	1.42
591.056	1.58
591.394	1.63
591.732	1.78
592.07	1.93
592.409	1.93
592.747	1.94
593.085	1.95
593.423	1.93
593.76	1.96
594.098	2.03
594.436	2.08
594.774	2.1
595.112	2.15
595.449	2.28
595.787	2.38
596.124	2.42
596.462	2.53
596.799	2.67
597.137	2.77
597.474	2.86
597.812	3.04
598.149	3.18
598.486	3.26
598.823	3.37
599.16	3.52
599.498	3.57
599.835	3.62
600.172	3.76
600.509	3.98
600.845	4.14
601.182	4.33
601.519	4.55
601.856	4.72
602.193	4.83
602.529	4.98
602.866	5.1
603.202	5.33
603.539	5.5
603.875	5.64
604.212	5.78
604.548	6.03
604.885	6.22
605.221	6.42
605.557	6.66
605.893	6.88
606.23	7.08
606.566	7.21
606.902	7.46
607.238	7.73
607.574	8.01
607.91	8.26
608.245	8.59
608.581	8.95
608.917	9.18
609.253	9.5
609.588	9.89
609.924	10.16
610.26	10.4
610.595	10.68
610.931	10.93
611.266	11.18
611.601	11.46
611.937	11.73
612.272	12.01
612.607	12.37
612.942	12.63
613.278	13.13
613.613	13.5
613.948	13.95
614.283	14.26
614.618	14.75
614.953	15.01
615.287	15.47
615.622	15.87
615.957	16.4
616.292	16.73
616.626	17.19
616.961	17.54
617.295	17.92
617.63	18.28
617.964	18.64
618.299	18.95
618.633	19.31
618.968	19.75
619.302	20.12
619.636	20.64
619.97	21.16
620.304	21.67
620.638	22.01
620.972	22.48
621.306	22.76
621.64	23.1
621.974	23.4
622.308	23.85
622.642	24.19
622.976	24.56
623.309	24.74
623.643	25.08
623.977	25.43
624.31	25.68
624.644	26.04
624.977	26.46
625.31	26.84
625.644	27.27
625.977	27.54
626.31	28
626.643	28.39
626.977	28.63
627.31	28.87
627.643	29.34
627.976	29.51
628.309	29.89
628.642	30.34
628.974	30.64
629.307	30.95
629.64	31.33
629.973	31.58
630.305	31.86
630.638	32.22
630.971	32.48
631.303	32.84
631.636	33.12
631.968	33.38
632.3	33.59
632.633	33.77
632.965	34.03
633.297	34.27
633.629	34.39
633.961	34.67
634.293	34.99
634.625	35.24
634.957	35.56
635.289	36.04
635.621	36.21
635.953	36.45
636.285	36.54
636.617	36.66
636.948	36.79
637.28	37.1
637.611	37.28
637.943	37.58
638.274	37.75
638.606	37.99
638.937	38.3
639.269	38.65
639.6	38.93
639.931	39.32
640.262	39.54
640.593	39.53
640.924	39.53
641.255	39.57
641.586	39.45
641.917	39.48
642.248	39.85
642.579	39.85
642.91	40.05
643.24	40.55
643.571	40.72
643.902	40.58
644.232	40.87
644.563	41.22
644.893	41.36
645.224	41.59
645.554	41.83
645.884	42.14
646.215	42.16
646.545	42.09
646.875	42.18
647.205	42.31
647.535	42.16
647.865	42.21
648.195	42.16
648.525	42.34
648.855	42.37
649.185	42.74
649.515	42.91
649.844	43.04
650.174	43.13
650.504	43.47
650.833	43.4
651.163	43.57
651.492	43.91
651.822	43.94
652.151	44.01
652.48	44.05
652.81	44.15
653.139	44.27
653.468	44.52
653.797	44.47
654.126	44.64
654.455	44.62
654.784	44.48
655.113	44.18
655.442	44.45
655.771	44.69
656.099	44.75
656.428	45.24
656.757	45.71
657.085	45.56
657.414	45.64
657.742	45.83
658.071	45.7
658.399	45.63
658.728	45.76
659.056	45.71
659.384	45.82
659.712	45.88
660.04	45.99
660.369	46.14
660.697	46.43
661.025	46.4
661.353	46.55
661.68	46.6
662.008	46.62
662.336	46.66
662.664	46.8
662.991	46.84
663.319	46.95
663.647	47.14
663.974	46.94
664.302	46.98
664.629	46.97
664.956	46.95
665.284	47.14
665.611	47.45
665.938	47.43
666.265	47.61
666.593	47.86
666.92	47.89
667.247	47.89
667.574	47.97
667.9	47.91
668.227	48.17
668.554	48.23
668.881	48.05
669.208	48.34
669.534	48.22
669.861	48.07
670.187	48.18
670.514	48.35
670.84	48.18
671.167	48.48
671.493	48.45
671.819	48.3
672.146	48.59
672.472	48.85
672.798	49.07
673.124	49.31
673.45	49.37
673.776	49.36
674.102	49.57
674.428	49.6
674.754	49.8
675.079	49.95
675.405	49.79
675.731	49.62
676.056	49.66
676.382	49.39
676.707	49.45
677.033	49.88
677.358	50.12
677.684	50.08
678.009	50.41
678.334	50.52
678.659	50.4
678.985	50.14
679.31	50.08
679.635	49.93
679.96	49.81
680.285	49.83
680.609	50.13
680.934	50.12
681.259	50.31
681.584	50.38
681.908	50.4
682.233	50.43
682.558	50.47
682.882	50.44
683.207	50.42
683.531	50.74
683.855	50.59
684.18	50.85
684.504	51.05
684.828	51.35
685.152	51.51
685.476	51.59
685.8	51.64
686.124	51.44
686.448	51.48
686.772	51.21
687.096	51.39
687.42	51.42
687.744	51.4
688.067	51.39
688.391	51.53
688.714	51.66
689.038	51.57
689.361	51.81
689.685	51.69
690.008	51.59
690.331	51.31
690.655	51.52
690.978	51.45
691.301	51.77
691.624	51.78
691.947	51.69
692.27	51.51
692.593	51.63
692.916	51.34
693.239	51.85
693.561	52.23
693.884	51.94
694.207	51.7
694.529	51.82
694.852	51.6
695.174	51.64
695.497	52.08
695.819	52.01
696.142	52.02
696.464	52.05
696.786	51.94
697.108	51.93
697.43	52.1
697.753	52.43
698.075	52.11
698.397	52.04
698.718	52.05
699.04	51.98
699.362	51.94
699.684	52.03
700.006	52.41
700.327	52.4
700.649	52.42
700.97	52.32
701.292	52.38
701.613	52.44
701.935	52.54
702.256	52.95
702.577	52.99
702.898	52.56
703.22	51.97
703.541	52.05
703.862	52.05
704.183	52.21
704.504	52.92
704.825	53.09
705.145	53.24
705.466	53.4
705.787	53.13
706.108	53.15
706.428	53.4
706.749	52.96
707.069	52.61
707.39	52.54
707.71	52.51
708.03	52.31
708.351	52.55
708.671	52.64
708.991	53.02
709.311	53.07
709.631	53.26
709.951	53.59
710.271	53.87
710.591	53.68
710.911	53.49
711.231	53.39
711.551	53.38
711.87	53.39
712.19	53.15
712.51	53.47
712.829	53.62
713.149	53.37
713.468	53.47
713.787	54.02
714.107	54.12
714.426	53.82
714.745	53.97
715.064	53.58
715.383	53.47
715.702	53.35
716.021	53.17
716.34	53.26
716.659	53.71
716.978	53.45
717.297	53.51
717.615	53.73
717.934	53.48
718.253	52.97
718.571	53.53
718.89	53.41
719.208	53.62
719.527	54.39
719.845	54.74
720.163	54.55
720.481	54.6
720.8	54.63
721.118	53.83
721.436	53.64
721.754	53.6
722.072	53.23
722.39	53.69
722.707	54.16
723.025	54.26
723.343	53.9
723.661	54.65
723.978	54.48
724.296	54.37
724.613	55.07
724.931	55.26
725.248	55.05
725.565	54.86
725.883	54.81
726.2	54.38
726.517	54.84
726.834	54.39
727.151	54.03
727.468	54.02
727.785	53.29
728.102	52.8
728.419	53.03
728.736	52.83
729.052	52.8
729.369	53.36
729.686	53.63
730.002	53.39
730.319	54.34
730.635	54.75
730.951	54.75
731.268	54.83
731.584	55.42
731.9	54.89
732.216	54.35
732.533	54.69
732.849	54.67
733.165	54.47
733.481	54.69
733.796	55.56
734.112	55.33
734.428	55.31
734.744	55.25
735.059	54.88
735.375	54.22
735.691	54.15
736.006	54.29
736.322	54.66
736.637	55.21
736.952	55.59
737.268	55.45
737.583	54.82
737.898	54.48
738.213	54.55
738.528	54.06
738.843	54.24
739.158	54.92
739.473	54.99
739.788	54.82
740.102	54.88
740.417	54.73
740.732	54.43
741.046	54.68
741.361	54.55
741.675	55.02
741.99	55.05
742.304	55.4
742.618	54.96
742.933	55.56
743.247	56
743.561	56.63
743.875	56.73
744.189	57.17
744.503	56.79
744.817	55.59
745.131	54.89
745.445	54.57
745.758	54.19
746.072	53.96
746.386	53.92
746.699	53.87
747.013	53.93
747.326	53.42
747.64	53.12
747.953	52.92
748.266	53.35
748.58	53.98
748.893	54.91
749.206	55.62
749.519	56.06
749.832	56.05
750.145	54.98
750.458	54.64
750.771	54.6
751.083	55
751.396	55.48
751.709	56.34
752.021	56.56
752.334	56.17
752.646	56.27
752.959	55.87
753.271	55.74
753.584	55.54
753.896	55.36
754.208	55.09
754.52	55.06
754.832	55.43
755.144	55.87
755.456	56.25
755.768	55.95
756.08	56.4
756.392	56.48
756.704	56.02
757.015	56.42
757.327	56.66
757.638	55.94
757.95	54.93
758.261	55.45
758.573	54.82
758.884	55.09
759.195	56.04
759.507	56.51
759.818	56.56
760.129	57.26
760.44	57.57
760.751	56.67
761.062	57.36
761.373	57.29
761.684	57.2
761.994	56.44
762.305	56.67
762.616	55.73
762.926	55.35
763.237	55.79
763.547	55.9
763.858	55.71
764.168	56.38
764.478	56.11
764.789	55.62
765.099	55.91
765.409	56.03
765.719	55.77
766.029	56.54
766.339	56.94
766.649	56.68
766.959	56.57
767.269	56.49
767.578	56.09
767.888	55.88
768.198	55.88
768.507	55.84
768.817	55.8
769.126	55.41
769.435	55.86
769.745	55.99
770.054	56.51
770.363	56.3
770.672	56.89
770.981	56.18
771.29	56.59
771.599	56.28
771.908	56.54
772.217	56.48
772.526	55.91
772.835	54.39
773.143	55.44
773.452	54.04
773.76	53.34
774.069	52.83
774.377	53.41
774.686	53.14
774.994	54.64
775.302	54.42
775.611	54.88
775.919	55.49
776.227	55.38
776.535	55.2
776.843	55.81
777.151	56.61
777.459	55.8
777.766	54.66
778.074	54.17
778.382	54.44
778.689	54.27
778.997	56.39
779.304	55.98
779.612	55.18
779.919	54.47
780.227	54.64
780.534	52.54
780.841	53.93
781.148	54.27
781.455	55.24
781.762	54.95
782.069	56.45
782.376	55.97
782.683	56.68
782.99	57.01
783.296	56.7
783.603	56.38
783.91	56.44
784.216	56.56
784.523	55.35
784.829	55.57
785.136	56.72
785.442	56.47
785.748	55.59
786.054	55.96
786.36	53.41
786.667	53.42
786.973	53.37
787.278	54.88
787.584	55.07
787.89	57.97
788.196	56.36
788.502	56.88
788.807	55.51
789.113	55.98
789.418	56
789.724	54.16
790.029	54.34
790.335	55.65
790.64	55.9
790.945	55.5
791.25	55.97
791.556	56.13
791.861	55.92
792.166	55.86
792.471	55.51
792.775	55.25
793.08	54.06
793.385	54.13
793.69	52.07
793.994	51.3
794.299	54.19
794.603	54.77
794.908	54.42
795.212	55.99
795.517	59.26
795.821	59.78
796.125	58.53
796.429	59.1
796.733	59.57
797.037	56.88
797.341	56.22
797.645	57.95
797.949	57.9
798.253	56.75
798.557	57.12
798.86	57.52
799.164	57.24
799.468	56.69
799.771	57.99
800.074	58.05
800.378	56.77
800.681	56.11
800.984	55.8
801.288	54.91
801.591	57.13
801.894	57.13
802.197	57.74
802.5	57.71
802.803	58.43
803.105	55.9
803.408	55.98
803.711	54.66
804.014	55.36
804.316	55.11
804.619	54.39
804.921	55.66
805.224	58.12
805.526	57.62
805.828	57.67
806.13	60.47
806.433	60.31
806.735	59.22
807.037	59.95
807.339	60.91
807.641	58.41
807.942	57.71
808.244	57.77
808.546	55.81
808.848	55.63
809.149	55.66
809.451	56.33
809.752	56.11
810.054	56.93
810.355	56.04
810.656	57.23
810.958	55.42
811.259	56.53
811.56	55.35
811.861	53.71
812.162	52.9
812.463	52.46
812.764	53.11
813.065	55.65
813.365	58.6
813.666	59.91
813.967	61.2
814.267	61.71
814.568	59.87
814.868	58.24
815.169	58.61
815.469	60.81
815.769	57.21
816.069	57.46
816.37	56.66
816.67	56.78
816.97	55.29
817.27	55.87
817.57	57.2
817.869	57.38
818.169	55.14
818.469	54.46
818.768	57.95
819.068	56.13
819.368	57.74
819.667	58.04
819.966	58.86
820.266	57.66
820.565	58.33
820.864	59.38
821.163	60.53
821.463	59.19
821.762	59.24
822.06	58.84
822.359	57.52
822.658	58.35
822.957	58.57
823.256	58.23
823.554	58.41
823.853	59.19
824.152	58.79
824.45	59.36
824.748	60.12
825.047	60.7
825.345	60.7
825.643	61.5
825.941	60.8
826.239	60.11
826.538	59.56
826.836	58.23
827.133	56.43
827.431	56.82
827.729	57.84
828.027	57.74
828.324	57.45
828.622	58.88
828.92	59.03
829.217	58.87
829.514	58.99
829.812	59.34
830.109	57.64
830.406	57.56
830.703	56.3
831.001	56.82
831.298	58.05
831.595	60.17
831.891	59.96
832.188	57.5
832.485	57.7
832.782	57.17
833.078	58.42
833.375	59.69
833.672	58.22
833.968	57.57
834.264	56.63
834.561	55.4
834.857	53.44
835.153	55
835.449	55.37
835.746	56.21
836.042	57.24
836.338	57.61
836.633	57.93
836.929	57.52
837.225	56.76
837.521	57.13
837.816	58.52
838.112	59.35
838.408	59.99
838.703	63.11
838.998	61.65
839.294	60.3
839.589	61.65
839.884	61.65
840.179	58.4
840.474	57.59
840.77	58.92
841.064	54.48
841.359	56.3
841.654	58.06
841.949	59.17
842.244	57.81
842.538	58.66
842.833	55.51
843.127	55.78
843.422	54.07
843.716	58.25
844.011	57.43
844.305	60.25
844.599	57.74
844.893	53.69
845.187	49.26
845.481	43.07
845.775	34.39
846.069	33.47
846.363	41.26
846.657	34.66
846.95	60
847.244	62.17
847.537	66
847.831	61.45
848.124	60.94
848.418	54.96
848.711	54.62
849.004	56.12
849.297	48.47
849.591	59.29
849.884	55.47
850.177	47
850.47	42.42
850.762	56.15
851.055	42.58
851.348	31.34
851.641	56.56
851.933	55.45
852.226	45.03
852.518	58.13
852.811	59.75
853.103	52.4
853.395	44.62
853.687	45.19
853.98	28.33
854.272	4.87
854.564	4.96
854.856	11.91
855.148	15.42
855.439	16.94
855.731	29.35
856.023	41.5
856.314	39.53
856.606	42.48
856.898	33.49
857.189	25.26
857.48	36.51
857.772	48.61
858.063	45.08
858.354	62.45
858.645	73.15
858.936	61.28
859.227	55.61
859.518	66.77
859.809	66.9
860.1	54.3
860.391	42.84
860.681	45.27
860.972	50.23
861.262	37.42
861.553	41.65
861.843	38.93
862.134	28.03
862.424	-5.56
862.714	4.7
863.004	4.96
863.294	1.26
863.584	12
863.874	34.63
864.164	4.96
864.454	-57.26
864.744	-60.61
865.034	-15.08
865.323	-34.03
865.613	-16.31
865.902	15.52
866.192	35.76
866.481	33.84
866.77	39.56
867.06	39.38
867.349	75.93
867.638	65.4
867.927	36.55
868.216	35.87
868.505	28.99
868.794	16.01
869.082	-7.49
869.371	-44.29
869.66	-109.69
869.948	-75.02
870.237	1303.08
870.525	566.2
870.814	-4215.51
871.102	-28.33
871.39	29.31
871.678	103.7
871.967	49.81
872.255	52.33
872.543	30.33
872.831	-9.53
873.118	-5.57
873.406	9.67
873.694	110.64
873.982	127.86
874.269	139.8
874.557	112.14
874.844	95.75
875.132	40.16
875.419	58.94
