Data from Oj-i1_Reflection_14-58-10-491.txt Node
Date: Tue Aug 16 14:58:10 CEST 2022
User: IDIV
Spectrometer: FLMS14958
Trigger mode: 0
Integration Time (sec): 1.000000E-1
Scans to average: 10
Electric dark correction enabled: true
Nonlinearity correction enabled: true
Boxcar width: 2
XAxis mode: Wavelengths
Number of Pixels in Spectrum: 2048
>>>>>Begin Spectral Data<<<<<
179.491	13.14
179.869	5.01
180.247	26.06
180.625	24.42
181.003	41.37
181.381	60.87
181.759	77.05
182.136	99.73
182.514	113.1
182.892	26.64
183.27	70.21
183.647	-18.54
184.025	-346.59
184.403	348.23
184.78	116.36
185.158	68.84
185.536	-47.96
185.913	618.5
186.291	344.4
186.668	-268.26
187.046	-5.82
187.423	64.8
187.801	40.72
188.178	25.6
188.556	26.19
188.933	22.99
189.31	15.65
189.688	15.89
190.065	17.49
190.442	11.75
190.82	11.3
191.197	8.08
191.574	11.74
191.951	6.47
192.329	6.22
192.706	9.48
193.083	12.51
193.46	17.99
193.837	18.71
194.214	18.24
194.591	13.17
194.968	15.4
195.345	7.66
195.722	6.7
196.099	16.18
196.476	12.9
196.853	11.36
197.23	19.14
197.607	19.02
197.984	3.22
198.36	6.24
198.737	0.87
199.114	-3.2
199.491	-6.94
199.867	14.49
200.244	18.19
200.621	15.14
200.997	16.54
201.374	22.27
201.75	-0.68
202.127	-10.19
202.504	-3.99
202.88	-0.55
203.257	-3.63
203.633	7.32
204.01	24.3
204.386	9.65
204.762	-3.89
205.139	-4.8
205.515	-6.34
205.891	-15.12
206.268	-8.03
206.644	4.79
207.02	8.37
207.396	0.84
207.773	3.5
208.149	10.92
208.525	4.15
208.901	3.18
209.277	3.19
209.653	-5.97
210.029	-21.38
210.405	-19.01
210.781	-15.44
211.157	-4.87
211.533	3.54
211.909	7.7
212.285	6.73
212.661	-2.6
213.037	-5.26
213.413	5.61
213.789	6.17
214.164	5.28
214.54	7.31
214.916	18.3
215.292	2.92
215.667	3.9
216.043	-2.32
216.419	-2.24
216.794	-10.83
217.17	-10
217.545	-4.19
217.921	7.36
218.296	14.48
218.672	7.27
219.047	0.73
219.423	-6.16
219.798	-16.22
220.174	-17.6
220.549	-11.98
220.924	-5.51
221.3	1
221.675	7.27
222.05	5.25
222.425	4.42
222.801	3.01
223.176	0.19
223.551	8.02
223.926	13.36
224.301	14.89
224.676	16.17
225.051	15.26
225.426	9.75
225.801	1.18
226.176	1.69
226.551	1.52
226.926	0.39
227.301	2.29
227.676	4.23
228.051	3.29
228.426	2.16
228.801	2.93
229.175	0.86
229.55	0.38
229.925	-0.24
230.3	-0.5
230.674	-1.43
231.049	-1.27
231.424	-1.11
231.798	0.01
232.173	2.15
232.547	3.7
232.922	3.36
233.296	4.58
233.671	2.56
234.045	2.38
234.42	1.99
234.794	2.62
235.168	1.84
235.543	3.64
235.917	2.65
236.291	2.86
236.666	2.65
237.04	3.19
237.414	2.53
237.788	2.69
238.162	2.67
238.537	3.13
238.911	2.93
239.285	1.65
239.659	1.19
240.033	0.56
240.407	0.31
240.781	0.27
241.155	0.87
241.529	0.59
241.903	1.03
242.277	0.68
242.65	0.7
243.024	0.45
243.398	0.62
243.772	0.38
244.146	0.26
244.519	0.15
244.893	-0.01
245.267	-0.01
245.64	0.49
246.014	0.48
246.387	0.22
246.761	0.25
247.135	-0.07
247.508	-0.13
247.882	0.02
248.255	0.16
248.628	0.13
249.002	0.23
249.375	0.03
249.749	-0.05
250.122	-0.36
250.495	-0.22
250.868	0.11
251.242	0.41
251.615	0.32
251.988	0.5
252.361	0.64
252.734	0.28
253.107	0.28
253.481	0.27
253.854	0.25
254.227	0.32
254.6	0.34
254.973	0.35
255.346	-0.05
255.718	-0.48
256.091	-1.01
256.464	-0.93
256.837	-0.96
257.21	-0.42
257.583	-0.01
257.955	0.09
258.328	-0.1
258.701	-0.22
259.074	-0.23
259.446	-0.3
259.819	-0.25
260.191	-0.21
260.564	-0.14
260.936	-0.13
261.309	-0.09
261.681	-0.1
262.054	-0.01
262.426	-0.02
262.799	-0.02
263.171	-0.09
263.543	-0.03
263.916	0.14
264.288	0.55
264.66	0.51
265.033	0.58
265.405	0.53
265.777	0.52
266.149	0.38
266.521	0.39
266.893	0.02
267.265	0.11
267.637	-0.04
268.009	-0.26
268.381	-0.05
268.753	0.08
269.125	0.11
269.497	0.23
269.869	0.28
270.241	-0.11
270.613	-0.15
270.985	-0.2
271.356	-0.09
271.728	-0.08
272.1	0.16
272.471	0.27
272.843	0.12
273.215	0.07
273.586	-0.06
273.958	-0.14
274.329	-0.18
274.701	-0.1
275.072	-0.1
275.444	0.01
275.815	-0.27
276.187	-0.16
276.558	-0.12
276.929	-0.32
277.301	-0.07
277.672	0
278.043	0.07
278.415	0.17
278.786	0.4
279.157	0.12
279.528	0.12
279.899	0.05
280.27	-0.14
280.641	-0.18
281.012	-0.15
281.383	0.06
281.754	-0.04
282.125	0.14
282.496	0.25
282.867	0.23
283.238	0.16
283.609	0.25
283.98	0.25
284.35	0.29
284.721	0.25
285.092	0.29
285.462	0.43
285.833	0.24
286.204	0.14
286.574	0.19
286.945	0.2
287.315	0.26
287.686	0.42
288.056	0.27
288.427	0.34
288.797	0.37
289.168	0.3
289.538	0.35
289.908	0.66
290.279	0.7
290.649	0.64
291.019	0.28
291.39	0.2
291.76	-0.08
292.13	-0.24
292.5	-0.44
292.87	-0.24
293.24	-0.18
293.61	-0.06
293.98	0.12
294.35	0.37
294.72	0.3
295.09	0.15
295.46	0.03
295.83	0.05
296.2	-0.07
296.57	-0.11
296.939	-0.02
297.309	0.1
297.679	-0.09
298.049	-0.24
298.418	-0.1
298.788	-0.21
299.158	-0.25
299.527	-0.15
299.897	0.13
300.266	0.13
300.636	0.22
301.005	0.3
301.375	0.18
301.744	0.15
302.113	0.08
302.483	0.14
302.852	0.17
303.221	0.58
303.591	0.8
303.96	0.94
304.329	0.76
304.698	0.62
305.067	0.16
305.436	0.1
305.806	-0.14
306.175	0.02
306.544	-0.01
306.913	0.23
307.282	-0.01
307.65	-0.04
308.019	-0.19
308.388	-0.1
308.757	-0.18
309.126	-0
309.495	0.03
309.863	0.02
310.232	-0.09
310.601	-0.2
310.969	-0.12
311.338	0.11
311.707	0
312.075	0.15
312.444	0.19
312.812	0.22
313.181	0.12
313.549	0.34
313.918	0.24
314.286	0.3
314.654	0.12
315.023	-0.21
315.391	-0.25
315.759	-0.28
316.127	-0.2
316.496	-0.14
316.864	0.22
317.232	0.16
317.6	-0.05
317.968	0.2
318.336	0.15
318.704	0.17
319.072	0.34
319.44	0.82
319.808	0.72
320.176	0.77
320.544	0.73
320.912	0.74
321.28	0.61
321.647	0.67
322.015	0.71
322.383	0.61
322.75	0.49
323.118	0.14
323.486	-0.06
323.853	-0.06
324.221	0.06
324.588	0.17
324.956	0.46
325.323	0.53
325.691	0.37
326.058	0.15
326.426	-0.01
326.793	-0.07
327.16	0
327.528	0.26
327.895	0.38
328.262	0.71
328.629	0.88
328.996	0.77
329.363	0.46
329.731	0.68
330.098	0.56
330.465	0.44
330.832	0.44
331.199	0.74
331.566	0.68
331.932	0.63
332.299	0.36
332.666	0.42
333.033	0.3
333.4	0.35
333.766	0.15
334.133	0.33
334.5	0.36
334.867	0.19
335.233	-0.13
335.6	0.09
335.966	0.11
336.333	-0.08
336.699	-0.03
337.066	0
337.432	-0.04
337.799	-0.04
338.165	0.2
338.531	0.27
338.898	0.38
339.264	0.41
339.63	0.5
339.996	0.65
340.363	0.73
340.729	0.58
341.095	0.76
341.461	0.81
341.827	0.63
342.193	0.59
342.559	0.9
342.925	0.62
343.291	0.59
343.657	0.62
344.023	0.6
344.388	0.45
344.754	0.73
345.12	0.54
345.486	0.56
345.851	0.57
346.217	0.79
346.583	0.64
346.948	0.6
347.314	0.28
347.679	0.22
348.045	0.04
348.41	0.11
348.776	0.25
349.141	0.59
349.507	0.56
349.872	0.41
350.237	0.34
350.603	0.53
350.968	0.44
351.333	0.41
351.698	0.56
352.063	0.58
352.428	0.23
352.794	0.11
353.159	0.05
353.524	-0.09
353.889	-0.21
354.254	-0.02
354.618	-0.15
354.983	0.14
355.348	0.15
355.713	0.19
356.078	0.2
356.443	0.22
356.807	0.24
357.172	0.4
357.537	0.71
357.901	0.63
358.266	0.78
358.63	0.68
358.995	0.57
359.359	0.23
359.724	0.28
360.088	0.28
360.453	0.29
360.817	0.34
361.181	0.31
361.546	0.25
361.91	0.34
362.274	0.36
362.638	0.28
363.003	0.48
363.367	0.62
363.731	0.35
364.095	0.23
364.459	0.32
364.823	0.03
365.187	-0.14
365.551	0.03
365.915	0.07
366.279	-0.07
366.642	0.11
367.006	0.17
367.37	0.11
367.734	0.26
368.097	0.45
368.461	0.49
368.825	0.56
369.188	0.61
369.552	0.57
369.915	0.61
370.279	0.59
370.642	0.58
371.006	0.69
371.369	0.61
371.732	0.44
372.096	0.31
372.459	0.26
372.822	0.16
373.186	0.07
373.549	0.17
373.912	0.25
374.275	0.26
374.638	0.43
375.001	0.54
375.364	0.42
375.727	0.29
376.09	0.33
376.453	0.22
376.816	0.04
377.179	0
377.542	0.11
377.904	0.03
378.267	0.08
378.63	0.25
378.993	0.36
379.355	0.33
379.718	0.45
380.08	0.34
380.443	0.32
380.806	0.41
381.168	0.53
381.53	0.48
381.893	0.54
382.255	0.44
382.618	0.43
382.98	0.3
383.342	0.36
383.704	0.19
384.067	0.37
384.429	0.35
384.791	0.34
385.153	0.33
385.515	0.44
385.877	0.28
386.239	0.19
386.601	0.26
386.963	0.21
387.325	0.09
387.687	0.22
388.049	0.25
388.41	0.16
388.772	0.25
389.134	0.44
389.496	0.48
389.857	0.49
390.219	0.53
390.58	0.45
390.942	0.38
391.303	0.21
391.665	0.26
392.026	0.33
392.388	0.3
392.749	0.34
393.111	0.44
393.472	0.46
393.833	0.44
394.194	0.4
394.556	0.49
394.917	0.5
395.278	0.51
395.639	0.51
396	0.55
396.361	0.48
396.722	0.4
397.083	0.38
397.444	0.3
397.805	0.33
398.166	0.31
398.526	0.38
398.887	0.27
399.248	0.39
399.609	0.45
399.969	0.47
400.33	0.36
400.691	0.52
401.051	0.41
401.412	0.36
401.772	0.2
402.133	0.34
402.493	0.24
402.853	0.31
403.214	0.35
403.574	0.47
403.934	0.41
404.295	0.35
404.655	0.26
405.015	0.3
405.375	0.29
405.735	0.2
406.095	0.24
406.455	0.23
406.815	0.08
407.175	0.08
407.535	0.09
407.895	0.13
408.255	0.15
408.615	0.23
408.975	0.3
409.334	0.37
409.694	0.41
410.054	0.41
410.413	0.35
410.773	0.18
411.133	0.16
411.492	0.04
411.852	0.11
412.211	0.15
412.571	0.23
412.93	0.34
413.289	0.46
413.649	0.48
414.008	0.56
414.367	0.47
414.726	0.38
415.086	0.36
415.445	0.27
415.804	0.16
416.163	0.23
416.522	0.16
416.881	0.14
417.24	0.1
417.599	0.11
417.958	0.15
418.316	0.19
418.675	0.17
419.034	0.22
419.393	0.21
419.751	0.2
420.11	0.2
420.469	0.19
420.827	0.22
421.186	0.23
421.544	0.17
421.903	0.16
422.261	0.15
422.62	0.12
422.978	0.1
423.336	0.09
423.695	0.11
424.053	0.15
424.411	0.14
424.769	0.15
425.128	0.18
425.486	0.19
425.844	0.14
426.202	0.12
426.56	0.11
426.918	0.19
427.276	0.17
427.634	0.22
427.991	0.23
428.349	0.23
428.707	0.14
429.065	0.2
429.423	0.21
429.78	0.32
430.138	0.34
430.495	0.43
430.853	0.43
431.211	0.42
431.568	0.24
431.925	0.2
432.283	0.14
432.64	0.1
432.998	0.06
433.355	0.14
433.712	0.2
434.069	0.24
434.427	0.24
434.784	0.31
435.141	0.32
435.498	0.32
435.855	0.32
436.212	0.34
436.569	0.38
436.926	0.33
437.283	0.28
437.64	0.22
437.996	0.14
438.353	0.08
438.71	0.07
439.067	0.1
439.423	0.12
439.78	0.16
440.137	0.18
440.493	0.22
440.85	0.21
441.206	0.22
441.563	0.22
441.919	0.22
442.275	0.25
442.632	0.21
442.988	0.23
443.344	0.24
443.7	0.27
444.057	0.25
444.413	0.26
444.769	0.24
445.125	0.26
445.481	0.18
445.837	0.21
446.193	0.22
446.549	0.26
446.905	0.21
447.26	0.26
447.616	0.25
447.972	0.25
448.328	0.23
448.683	0.28
449.039	0.31
449.395	0.26
449.75	0.25
450.106	0.27
450.461	0.26
450.817	0.18
451.172	0.27
451.527	0.29
451.883	0.3
452.238	0.3
452.593	0.34
452.949	0.35
453.304	0.38
453.659	0.37
454.014	0.42
454.369	0.37
454.724	0.31
455.079	0.28
455.434	0.33
455.789	0.27
456.144	0.37
456.499	0.4
456.853	0.42
457.208	0.35
457.563	0.34
457.918	0.32
458.272	0.35
458.627	0.36
458.981	0.38
459.336	0.34
459.69	0.34
460.045	0.29
460.399	0.28
460.754	0.29
461.108	0.33
461.462	0.32
461.817	0.38
462.171	0.37
462.525	0.39
462.879	0.4
463.233	0.4
463.587	0.32
463.941	0.35
464.295	0.31
464.649	0.41
465.003	0.36
465.357	0.4
465.711	0.34
466.065	0.26
466.418	0.09
466.772	0.13
467.126	0.12
467.479	0.15
467.833	0.16
468.186	0.2
468.54	0.19
468.893	0.18
469.247	0.24
469.6	0.31
469.954	0.33
470.307	0.32
470.66	0.26
471.013	0.22
471.367	0.17
471.72	0.09
472.073	0.13
472.426	0.16
472.779	0.15
473.132	0.22
473.485	0.28
473.838	0.28
474.191	0.38
474.544	0.4
474.896	0.36
475.249	0.39
475.602	0.34
475.955	0.26
476.307	0.27
476.66	0.3
477.012	0.25
477.365	0.31
477.717	0.33
478.07	0.32
478.422	0.32
478.775	0.39
479.127	0.37
479.479	0.42
479.831	0.45
480.184	0.47
480.536	0.42
480.888	0.4
481.24	0.4
481.592	0.4
481.944	0.41
482.296	0.41
482.648	0.4
483	0.35
483.352	0.32
483.703	0.31
484.055	0.3
484.407	0.31
484.759	0.33
485.11	0.32
485.462	0.31
485.813	0.31
486.165	0.3
486.516	0.29
486.868	0.32
487.219	0.33
487.571	0.34
487.922	0.33
488.273	0.31
488.624	0.29
488.976	0.27
489.327	0.27
489.678	0.27
490.029	0.25
490.38	0.26
490.731	0.26
491.082	0.31
491.433	0.32
491.784	0.38
492.135	0.37
492.485	0.38
492.836	0.37
493.187	0.37
493.537	0.37
493.888	0.38
494.239	0.38
494.589	0.33
494.94	0.41
495.29	0.4
495.641	0.44
495.991	0.49
496.341	0.52
496.692	0.44
497.042	0.49
497.392	0.5
497.742	0.52
498.092	0.53
498.442	0.57
498.793	0.53
499.143	0.54
499.493	0.56
499.842	0.56
500.192	0.57
500.542	0.63
500.892	0.62
501.242	0.65
501.591	0.72
501.941	0.77
502.291	0.73
502.64	0.84
502.99	0.83
503.339	0.83
503.689	0.82
504.038	0.87
504.388	0.88
504.737	0.96
505.086	0.96
505.436	0.98
505.785	1.09
506.134	1.08
506.483	1.09
506.832	1.19
507.181	1.28
507.53	1.24
507.879	1.31
508.228	1.38
508.577	1.43
508.926	1.49
509.275	1.61
509.624	1.63
509.972	1.68
510.321	1.7
510.67	1.79
511.018	1.86
511.367	1.95
511.715	2.05
512.064	2.2
512.412	2.29
512.761	2.42
513.109	2.51
513.457	2.58
513.806	2.65
514.154	2.74
514.502	2.75
514.85	2.83
515.198	2.99
515.546	3.15
515.894	3.24
516.242	3.29
516.59	3.4
516.938	3.45
517.286	3.52
517.634	3.63
517.981	3.81
518.329	3.98
518.677	4.06
519.024	4.13
519.372	4.21
519.72	4.32
520.067	4.41
520.415	4.57
520.762	4.75
521.109	4.95
521.457	5.1
521.804	5.26
522.151	5.37
522.498	5.45
522.846	5.52
523.193	5.66
523.54	5.74
523.887	5.9
524.234	6.07
524.581	6.19
524.928	6.29
525.275	6.36
525.621	6.51
525.968	6.53
526.315	6.64
526.662	6.73
527.008	6.81
527.355	6.83
527.701	6.92
528.048	7.01
528.394	7.08
528.741	7.17
529.087	7.27
529.434	7.38
529.78	7.46
530.126	7.59
530.472	7.71
530.819	7.77
531.165	7.82
531.511	7.91
531.857	7.94
532.203	7.94
532.549	8.03
532.895	8.09
533.241	8.1
533.586	8.18
533.932	8.25
534.278	8.29
534.624	8.37
534.969	8.43
535.315	8.49
535.661	8.52
536.006	8.54
536.352	8.53
536.697	8.6
537.042	8.6
537.388	8.65
537.733	8.7
538.078	8.74
538.424	8.74
538.769	8.76
539.114	8.74
539.459	8.72
539.804	8.7
540.149	8.67
540.494	8.64
540.839	8.6
541.184	8.65
541.529	8.72
541.873	8.75
542.218	8.78
542.563	8.83
542.908	8.85
543.252	8.85
543.597	8.89
543.941	8.95
544.286	8.96
544.63	8.98
544.975	8.94
545.319	8.93
545.663	8.87
546.007	8.87
546.352	8.88
546.696	8.93
547.04	8.96
547.384	9
547.728	9.08
548.072	9.06
548.416	9.13
548.76	9.18
549.104	9.16
549.448	9.16
549.791	9.15
550.135	9.18
550.479	9.13
550.823	9.15
551.166	9.13
551.51	9.27
551.853	9.22
552.197	9.27
552.54	9.33
552.883	9.41
553.227	9.32
553.57	9.33
553.913	9.35
554.257	9.34
554.6	9.27
554.943	9.26
555.286	9.29
555.629	9.31
555.972	9.24
556.315	9.24
556.658	9.2
557.001	9.2
557.343	9.14
557.686	9.23
558.029	9.24
558.371	9.31
558.714	9.23
559.057	9.2
559.399	9.13
559.742	9.03
560.084	8.96
560.427	8.93
560.769	8.75
561.111	8.66
561.453	8.66
561.796	8.56
562.138	8.48
562.48	8.56
562.822	8.51
563.164	8.38
563.506	8.38
563.848	8.34
564.19	8.27
564.532	8.22
564.874	8.18
565.215	8.05
565.557	7.93
565.899	7.8
566.24	7.72
566.582	7.65
566.924	7.65
567.265	7.62
567.606	7.63
567.948	7.61
568.289	7.51
568.631	7.41
568.972	7.34
569.313	7.23
569.654	7.16
569.995	7.13
570.336	7.04
570.677	6.9
571.018	6.76
571.359	6.67
571.7	6.63
572.041	6.52
572.382	6.5
572.723	6.52
573.064	6.43
573.404	6.4
573.745	6.37
574.085	6.33
574.426	6.23
574.766	6.2
575.107	6.04
575.447	5.96
575.788	5.81
576.128	5.76
576.468	5.68
576.808	5.71
577.149	5.65
577.489	5.65
577.829	5.56
578.169	5.4
578.509	5.24
578.849	5.18
579.189	5.2
579.529	5.21
579.868	5.27
580.208	5.3
580.548	5.25
580.887	5.23
581.227	5.22
581.567	5.25
581.906	5.23
582.246	5.21
582.585	5.09
582.925	5.01
583.264	4.87
583.603	4.8
583.942	4.67
584.282	4.64
584.621	4.58
584.96	4.54
585.299	4.54
585.638	4.69
585.977	4.68
586.316	4.69
586.655	4.75
586.994	4.68
587.332	4.61
587.671	4.54
588.01	4.44
588.348	4.35
588.687	4.32
589.026	4.23
589.364	4.18
589.703	4.24
590.041	4.24
590.379	4.23
590.718	4.31
591.056	4.33
591.394	4.24
591.732	4.17
592.07	4.16
592.409	4
592.747	3.99
593.085	4.02
593.423	4.05
593.76	3.96
594.098	4
594.436	4
594.774	3.95
595.112	4.04
595.449	4.08
595.787	4.02
596.124	4.01
596.462	3.91
596.799	3.74
597.137	3.68
597.474	3.73
597.812	3.75
598.149	3.86
598.486	3.99
598.823	4.07
599.16	4.02
599.498	3.94
599.835	3.9
600.172	3.9
600.509	3.81
600.845	3.81
601.182	3.83
601.519	3.74
601.856	3.61
602.193	3.73
602.529	3.75
602.866	3.72
603.202	3.68
603.539	3.61
603.875	3.5
604.212	3.45
604.548	3.46
604.885	3.44
605.221	3.47
605.557	3.46
605.893	3.44
606.23	3.38
606.566	3.47
606.902	3.41
607.238	3.47
607.574	3.49
607.91	3.47
608.245	3.41
608.581	3.37
608.917	3.25
609.253	3.2
609.588	3.14
609.924	3.13
610.26	3.14
610.595	3.14
610.931	3.09
611.266	3.09
611.601	3.05
611.937	2.97
612.272	2.83
612.607	2.88
612.942	2.88
613.278	2.83
613.613	2.85
613.948	2.94
614.283	2.75
614.618	2.62
614.953	2.65
615.287	2.74
615.622	2.71
615.957	2.75
616.292	2.79
616.626	2.72
616.961	2.69
617.295	2.68
617.63	2.67
617.964	2.62
618.299	2.61
618.633	2.46
618.968	2.44
619.302	2.4
619.636	2.43
619.97	2.35
620.304	2.35
620.638	2.38
620.972	2.38
621.306	2.36
621.64	2.32
621.974	2.43
622.308	2.31
622.642	2.43
622.976	2.49
623.309	2.55
623.643	2.5
623.977	2.69
624.31	2.62
624.644	2.55
624.977	2.54
625.31	2.47
625.644	2.34
625.977	2.28
626.31	2.17
626.643	2.24
626.977	2.22
627.31	2.21
627.643	2.25
627.976	2.41
628.309	2.41
628.642	2.39
628.974	2.38
629.307	2.31
629.64	2.24
629.973	2.27
630.305	2.25
630.638	2.29
630.971	2.38
631.303	2.41
631.636	2.29
631.968	2.46
632.3	2.51
632.633	2.49
632.965	2.46
633.297	2.59
633.629	2.49
633.961	2.52
634.293	2.45
634.625	2.33
634.957	2.28
635.289	2.29
635.621	2.09
635.953	2.17
636.285	2.22
636.617	2.14
636.948	2.15
637.28	2.21
637.611	2.11
637.943	2.11
638.274	2
638.606	1.96
638.937	1.9
639.269	1.95
639.6	2.03
639.931	1.94
640.262	1.78
640.593	1.73
640.924	1.56
641.255	1.41
641.586	1.54
641.917	1.49
642.248	1.38
642.579	1.41
642.91	1.46
643.24	1.35
643.571	1.49
643.902	1.55
644.232	1.5
644.563	1.39
644.893	1.44
645.224	1.28
645.554	1.29
645.884	1.19
646.215	1.25
646.545	1.07
646.875	1.01
647.205	1.02
647.535	1.16
647.865	1
648.195	1.06
648.525	1.15
648.855	1.04
649.185	1.01
649.515	1.08
649.844	1.05
650.174	1.09
650.504	1.2
650.833	1.09
651.163	1.04
651.492	1.1
651.822	1.04
652.151	1.06
652.48	1.04
652.81	1
653.139	0.95
653.468	0.93
653.797	0.74
654.126	0.74
654.455	0.82
654.784	0.81
655.113	0.84
655.442	0.9
655.771	0.81
656.099	0.66
656.428	0.74
656.757	0.77
657.085	0.83
657.414	0.94
657.742	1.04
658.071	0.87
658.399	0.8
658.728	0.69
659.056	0.67
659.384	0.66
659.712	0.8
660.04	0.83
660.369	0.77
660.697	0.83
661.025	0.74
661.353	0.7
661.68	0.71
662.008	0.84
662.336	0.73
662.664	0.75
662.991	0.63
663.319	0.59
663.647	0.63
663.974	0.71
664.302	0.69
664.629	0.71
664.956	0.73
665.284	0.51
665.611	0.44
665.938	0.63
666.265	0.59
666.593	0.6
666.92	0.69
667.247	0.69
667.574	0.44
667.9	0.55
668.227	0.4
668.554	0.49
668.881	0.51
669.208	0.59
669.534	0.65
669.861	0.65
670.187	0.72
670.514	0.61
670.84	0.82
671.167	0.79
671.493	0.88
671.819	0.83
672.146	1.06
672.472	0.79
672.798	0.79
673.124	0.8
673.45	0.89
673.776	0.74
674.102	0.93
674.428	0.99
674.754	1.14
675.079	1.14
675.405	1.19
675.731	1.27
676.056	1.28
676.382	1.09
676.707	0.9
677.033	0.86
677.358	0.72
677.684	0.67
678.009	0.81
678.334	0.85
678.659	0.79
678.985	0.61
679.31	0.53
679.635	0.33
679.96	0.48
680.285	0.6
680.609	0.97
680.934	1.14
681.259	1.29
681.584	1.18
681.908	1.39
682.233	1.13
682.558	0.98
682.882	1
683.207	1.09
683.531	0.9
683.855	1
684.18	1.17
684.504	1.04
684.828	0.94
685.152	1.05
685.476	1.24
685.8	1.37
686.124	1.68
686.448	1.99
686.772	2.09
687.096	2.14
687.42	2.07
687.744	1.96
688.067	1.84
688.391	2.08
688.714	2.03
689.038	2.24
689.361	2.6
689.685	2.73
690.008	2.6
690.331	2.97
690.655	3.03
690.978	2.98
691.301	3.15
691.624	3.45
691.947	3.71
692.27	3.98
692.593	4.36
692.916	4.73
693.239	4.88
693.561	5.09
693.884	5.39
694.207	5.8
694.529	6.14
694.852	6.48
695.174	6.8
695.497	7.29
695.819	7.59
696.142	7.82
696.464	8.38
696.786	8.93
697.108	9.36
697.43	9.66
697.753	10.21
698.075	10.23
698.397	10.27
698.718	10.31
699.04	10.66
699.362	10.9
699.684	11.38
700.006	11.85
700.327	12.4
700.649	12.65
700.97	13.11
701.292	13.7
701.613	14.25
701.935	14.73
702.256	15.45
702.577	15.91
702.898	16.47
703.22	16.44
703.541	17.32
703.862	17.82
704.183	18.2
704.504	18.51
704.825	19.07
705.145	18.99
705.466	19.41
705.787	19.57
706.108	19.7
706.428	20.55
706.749	20.8
707.069	20.73
707.39	21.15
707.71	21.42
708.03	21.22
708.351	21.5
708.671	21.65
708.991	22.08
709.311	22.62
709.631	23.12
709.951	23.31
710.271	23.62
710.591	23.97
710.911	24.06
711.231	24.54
711.551	24.91
711.87	25.39
712.19	25.45
712.51	26.1
712.829	26.22
713.149	26.55
713.468	27.16
713.787	27.95
714.107	27.8
714.426	28.05
714.745	28.09
715.064	27.91
715.383	27.78
715.702	28.18
716.021	28.64
716.34	29.17
716.659	29.46
716.978	29.82
717.297	29.58
717.615	29.89
717.934	30.04
718.253	30.52
718.571	30.57
718.89	31.26
719.208	31.04
719.527	31.3
719.845	31.1
720.163	31.4
720.481	31.47
720.8	31.99
721.118	31.83
721.436	32.93
721.754	33.37
722.072	33.56
722.39	33.41
722.707	34
723.025	33.67
723.343	33.73
723.661	34.28
723.978	34.45
724.296	34.97
724.613	35.49
724.931	35.49
725.248	35.43
725.565	35.46
725.883	35.36
726.2	34.81
726.517	35.03
726.834	34.93
727.151	35.25
727.468	35.66
727.785	36.06
728.102	36.01
728.419	36.67
728.736	37.12
729.052	36.81
729.369	36.85
729.686	37.18
730.002	37.07
730.319	36.92
730.635	36.9
730.951	37.04
731.268	36.95
731.584	36.81
731.9	37.06
732.216	37.4
732.533	37.7
732.849	38.52
733.165	38.92
733.481	39.05
733.796	39.3
734.112	39.44
734.428	39.75
734.744	40.1
735.059	39.86
735.375	39.75
735.691	40.4
736.006	39.79
736.322	40.02
736.637	40.43
736.952	40.28
737.268	39.73
737.583	40.08
737.898	40.01
738.213	40.27
738.528	40.55
738.843	40.84
739.158	40.74
739.473	40.73
739.788	41.12
740.102	41.57
740.417	41.39
740.732	41.49
741.046	41.84
741.361	40.96
741.675	40.85
741.99	41.17
742.304	41.35
742.618	41.23
742.933	41.81
743.247	42.18
743.561	41.65
743.875	41.48
744.189	41.22
744.503	41.06
744.817	40.75
745.131	41.46
745.445	41.72
745.758	41.69
746.072	41.43
746.386	41.11
746.699	40.82
747.013	40.75
747.326	40.81
747.64	41.66
747.953	42.01
748.266	42.26
748.58	42.19
748.893	41.95
749.206	41.61
749.519	41.44
749.832	41.66
750.145	41.74
750.458	41.98
750.771	42.07
751.083	42.49
751.396	42.19
751.709	41.95
752.021	41.6
752.334	41.44
752.646	40.88
752.959	40.44
753.271	39.83
753.584	40.1
753.896	39.93
754.208	40.66
754.52	41.02
754.832	41.85
755.144	42.3
755.456	42.34
755.768	41.98
756.08	42.04
756.392	41.74
756.704	42.25
757.015	42.59
757.327	41.73
757.638	41.79
757.95	42.5
758.261	41.45
758.573	41.19
758.884	41.92
759.195	42.27
759.507	41.83
759.818	41.49
760.129	41.44
760.44	41.06
760.751	40.57
761.062	40.08
761.373	41.04
761.684	40.94
761.994	40.93
762.305	40.82
762.616	41.54
762.926	40.94
763.237	40.65
763.547	40.33
763.858	39.85
764.168	39.55
764.478	39.65
764.789	40
765.099	40.19
765.409	40.85
765.719	40.69
766.029	41.02
766.339	40.85
766.649	41.34
766.959	40.93
767.269	40.95
767.578	40.65
767.888	40.18
768.198	40.17
768.507	40.03
768.817	40.23
769.126	39.85
769.435	40.55
769.745	39.96
770.054	40.89
770.363	40.85
770.672	41.12
770.981	41.78
771.29	42.43
771.599	41.38
771.908	40.71
772.217	40.82
772.526	39.1
772.835	38.18
773.143	38.74
773.452	39.44
773.76	38.72
774.069	39.49
774.377	40.59
774.686	39.54
774.994	38.58
775.302	38.93
775.611	39.01
775.919	38.79
776.227	38.05
776.535	38.75
776.843	37.78
777.151	37.61
777.459	37.93
777.766	39.29
778.074	39.75
778.382	41.13
778.689	40.84
778.997	39.38
779.304	39.92
779.612	38.72
779.919	38.77
780.227	40.44
780.534	41.3
780.841	40.94
781.148	42.32
781.455	41.67
781.762	40.26
782.069	40.8
782.376	40.16
782.683	38.91
782.99	39.61
783.296	39.06
783.603	38.51
783.91	39.32
784.216	39.75
784.523	38.39
784.829	38.48
785.136	36.29
785.442	36.87
785.748	36.95
786.054	37.54
786.36	37.58
786.667	40.67
786.973	41.05
787.278	40.12
787.584	40.71
787.89	40.88
788.196	40.54
788.502	39.43
788.807	40.84
789.113	39.87
789.418	40.87
789.724	39.54
790.029	37.95
790.335	37.1
790.64	37.48
790.945	36.08
791.25	36.89
791.556	38.42
791.861	39.82
792.166	39.69
792.471	39.9
792.775	37.48
793.08	37.87
793.385	36.39
793.69	36.29
793.994	36.27
794.299	38.76
794.603	37.96
794.908	38.29
795.212	38.52
795.517	38.75
795.821	38.77
796.125	39.62
796.429	40.59
796.733	40.54
797.037	40.74
797.341	39.39
797.645	39.49
797.949	38.3
798.253	37.34
798.557	36.79
798.86	38.65
799.164	37.76
799.468	38.12
799.771	38.86
800.074	39.85
800.378	39.3
800.681	39.79
800.984	40.08
801.288	40.33
801.591	38.48
801.894	38.8
802.197	38.04
802.5	37.04
802.803	38.67
803.105	41.39
803.408	41.52
803.711	43.01
804.014	44.37
804.316	43.64
804.619	41.66
804.921	41.8
805.224	39.75
805.526	38.99
805.828	36.18
806.13	36.8
806.433	37.05
806.735	38.55
807.037	39.32
807.339	40.57
807.641	41.04
807.942	39.94
808.244	39.58
808.546	38.95
808.848	38.8
809.149	37.73
809.451	38.66
809.752	39.32
810.054	40.53
810.355	41.86
810.656	43.49
810.958	42.69
811.259	41.42
811.56	40.76
811.861	39.77
812.162	39.08
812.463	39.88
812.764	40.73
813.065	38.37
813.365	38.32
813.666	35.82
813.967	34.53
814.267	33.57
814.568	36.96
814.868	35.96
815.169	38.59
815.469	36.69
815.769	35.83
816.069	32.32
816.37	34.28
816.67	34.85
816.97	35.54
817.27	36.22
817.57	38.67
817.869	38.78
818.169	35.4
818.469	35.55
818.768	36.63
819.068	33.38
819.368	31.39
819.667	32.68
819.966	34.35
820.266	33.77
820.565	35.95
820.864	37.19
821.163	38.24
821.463	38.59
821.762	39.85
822.06	40.94
822.359	40.75
822.658	40.44
822.957	40.77
823.256	40.22
823.554	39.91
823.853	40.58
824.152	40.82
824.45	41
824.748	41.33
825.047	41.68
825.345	41.29
825.643	41.69
825.941	41.35
826.239	41.59
826.538	40.97
826.836	40.58
827.133	39.75
827.431	38.4
827.729	38.06
828.027	39.13
828.324	39.72
828.622	40.7
828.92	42.07
829.217	42.37
829.514	41.14
829.812	41.43
830.109	39.87
830.406	37.45
830.703	36.77
831.001	37.81
831.298	36.05
831.595	37.38
831.891	40.54
832.188	40.03
832.485	42.88
832.782	42.95
833.078	41.89
833.375	41.21
833.672	39.59
833.968	39.4
834.264	41.54
834.561	44.09
834.857	43.1
835.153	43.53
835.449	42.97
835.746	41.83
836.042	39.62
836.338	39.91
836.633	41.22
836.929	41.61
837.225	41.44
837.521	41.05
837.816	39.97
838.112	38.2
838.408	36.03
838.703	36.79
838.998	39.51
839.294	38.16
839.589	33.25
839.884	33.41
840.179	32.7
840.474	28.79
840.77	33.03
841.064	38.59
841.359	39.54
841.654	37.18
841.949	39.68
842.244	39.24
842.538	37.64
842.833	33.92
843.127	36.54
843.422	35.31
843.716	31.95
844.011	32.41
844.305	34.53
844.599	26.22
844.893	27.12
845.187	24.27
845.481	25.77
845.775	25.55
846.069	28.71
846.363	27.25
846.657	29.38
846.95	35.4
847.244	38.48
847.537	46.84
847.831	41.6
848.124	48.44
848.418	48.56
848.711	48.24
849.004	48.54
849.297	56.74
849.591	43.55
849.884	34.38
850.177	32.42
850.47	23.51
850.762	16.75
851.055	18.94
851.348	2.64
851.641	4.6
851.933	9.33
852.226	-2.21
852.518	15.94
852.811	20.15
853.103	15.82
853.395	15.08
853.687	20.49
853.98	20.22
854.272	25.69
854.564	31
854.856	33.87
855.148	35.32
855.439	30.66
855.731	34.27
856.023	31.85
856.314	22.12
856.606	13.8
856.898	18.19
857.189	25.42
857.48	18.37
857.772	36.51
858.063	51.88
858.354	45.06
858.645	26.49
858.936	36.17
859.227	40.34
859.518	29.26
859.809	32.94
860.1	48.6
860.391	34.36
860.681	26.92
860.972	34.02
861.262	38.1
861.553	23.1
861.843	24.53
862.134	13.67
862.424	-1.53
862.714	-1.28
863.004	7.76
863.294	12.74
863.584	25.14
863.874	29.63
864.164	26.96
864.454	40.66
864.744	36.11
865.034	1.99
865.323	37
865.613	34.46
865.902	18.03
866.192	24.6
866.481	28.32
866.77	10.36
867.06	-17.63
867.349	-9.16
867.638	-7.36
867.927	-19
868.216	-9.15
868.505	16.19
868.794	21.91
869.082	-4.05
869.371	-1.01
869.66	2.89
869.948	-14.77
870.237	-18.26
870.525	22.28
870.814	4.13
871.102	-3.38
871.39	7.5
871.678	5.5
871.967	-28.61
872.255	18.87
872.543	27.45
872.831	33.34
873.118	17.85
873.406	11.78
873.694	-14.49
873.982	-34.79
874.269	-44.53
874.557	12.7
874.844	51.42
875.132	61.81
875.419	62.18
